
 --------------------------------------------------------------------------
           HIBRIDON SCATTERING CODE V 4.3 BUILD DATE 01/25/08 11:52:29 EST

     AUTHORS: M. ALEXANDER, D. MANOLOPOULOS, H.-J. WERNER, B. FOLLMEG
 CONTRIBUTORS: D. LEMOINE, P. VOHRALIK, G. COREY, R. JOHNSON, T. ORLIKOWSKI
               A. BERNING, A. DEGLI-ESPOSTI, C. RIST, P. DAGDIGIAN, B. POUILLY
               G. VAN DER SANDEN, M. YANG, F. DE WEERD, S. GREGURICK, J. KLOS
 --------------------------------------------------------------------------
           BUILD CONFIGURATION:
SYS=OS X 10.4.11; MACH=unix-darwin unix-ifort
CC=/usr/bin/cc -DNAME_LU; FC=/opt/intel/fc/10.1.007/bin/ifort -O3 -save
LIB_ROOT=-L/Library/Frameworks/Intel_MKL.framework/Versions/10.0.1.014/Libraries/32
LIBRARIES:
-lmkl_intel -lmkl_intel_thread -lmkl_core -lmkl_intel_thread -lmkl_core -lmkl_intel_thread -lmkl_core -lguide -lpthread
 --------------------------------------------------------------------------

 ** DETERMINATION OF OUTGOING FLUX ***
    THIS CALCULATION ON: Jan 25 11:53:38 2008
    FROM CALCULATION ON: Jan 25 11:53:38 2008
    INITIAL JOB LABEL: SCHATZ CH3I PHOTODISSOCIATION                   
    INITIAL POT NAME: SHAPIRO-GUO-SCHATZ 2D CH3I                      
    PHOTODISSOCIATION BOUNDARY CONDITIONS
    DIABATIC (ASYMPTOTIC) BASIS
    INFORMATION FROM FILE: Ch3itest.wfu                            
    ENERGY =  23090.000 cm(-1);  MASS =   13.4200
    CC CALCULATION:  JTOT =   0; JLPAR =  1
    FLUXES DETERMINED FROM R =   3.500 TO R =  10.000
    CLOSED CHANNEL THRESHOLD = -1.000E+09
    FACTOR FOR CLOSED CHANNEL DAMP =  0.00
    CHANNEL PARAMETERS:   N   J   L   IN    ENERGY(CM-1)    SQRT(K)
                PROBED:   1   0   0    1     7918.819      58.1545
                PROBED:   2   0   0    2     8550.379      56.9312
                PROBED:   3   0   0    3     9181.939      55.6810
                PROBED:   4   0   0    4     9813.499      54.4021
                PROBED:   5   0   0    5    10445.060      53.0924
                PROBED:   6   0   0   -1      315.780      71.2518
                PROBED:   7   0   0   -2      947.340      70.2569
                PROBED:   8   0   0   -3     1578.900      69.2477
                PROBED:   9   0   0   -4     2210.460      68.2236
                PROBED:  10   0   0   -5     2842.020      67.1838
                 TOTAL:  LAST COLUMN

 R (BOHR) AND OUTGOING FLUXES (ATOMIC UNITS)

   10.0000  4.898E+01  2.371E+01  4.917E+00  7.634E-01  3.614E-02  1.020E+01  2.259E+01  4.955E+00  2.881E-01  1.121E+00  1.176E+02
    9.7761  4.901E+01  2.340E+01  4.840E+00  7.686E-01  3.733E-02  1.017E+01  2.291E+01  5.024E+00  2.830E-01  1.119E+00  1.176E+02
    9.4486  4.884E+01  2.362E+01  4.889E+00  7.614E-01  3.833E-02  1.033E+01  2.270E+01  4.965E+00  2.901E-01  1.117E+00  1.176E+02
    9.1368  4.924E+01  2.380E+01  4.892E+00  7.612E-01  3.570E-02  9.907E+00  2.255E+01  4.963E+00  2.924E-01  1.120E+00  1.176E+02
    8.8398  4.885E+01  2.333E+01  4.793E+00  7.789E-01  3.852E-02  1.026E+01  2.304E+01  5.081E+00  2.803E-01  1.118E+00  1.176E+02
    8.5569  4.897E+01  2.391E+01  4.927E+00  7.785E-01  4.062E-02  1.008E+01  2.246E+01  4.989E+00  2.859E-01  1.117E+00  1.176E+02
    8.2876  4.908E+01  2.340E+01  4.834E+00  7.879E-01  3.305E-02  9.926E+00  2.296E+01  5.143E+00  2.731E-01  1.125E+00  1.176E+02
    8.0310  4.880E+01  2.375E+01  4.913E+00  7.734E-01  3.580E-02  1.020E+01  2.258E+01  5.120E+00  2.643E-01  1.120E+00  1.176E+02
    7.7867  4.933E+01  2.338E+01  4.829E+00  7.297E-01  2.360E-02  9.742E+00  2.290E+01  5.227E+00  2.583E-01  1.131E+00  1.176E+02
    7.5540  4.923E+01  2.370E+01  4.781E+00  6.727E-01  2.711E-02  1.006E+01  2.249E+01  5.228E+00  2.420E-01  1.128E+00  1.176E+02
    7.3324  4.974E+01  2.287E+01  4.512E+00  5.992E-01  2.259E-02  9.909E+00  2.316E+01  5.378E+00  2.359E-01  1.138E+00  1.176E+02
    7.1213  5.068E+01  2.367E+01  4.452E+00  5.504E-01  4.164E-02  9.480E+00  2.207E+01  5.250E+00  2.251E-01  1.135E+00  1.176E+02
    6.9203  5.020E+01  2.184E+01  3.963E+00  5.597E-01  4.793E-02  1.054E+01  2.350E+01  5.553E+00  2.113E-01  1.152E+00  1.176E+02
    6.7288  5.229E+01  2.267E+01  4.161E+00  6.208E-01  9.760E-02  8.983E+00  2.213E+01  5.255E+00  2.192E-01  1.135E+00  1.176E+02
    6.5465  5.154E+01  2.153E+01  3.958E+00  8.202E-01  1.183E-01  1.011E+01  2.261E+01  5.532E+00  1.874E-01  1.159E+00  1.176E+02
    6.3729  5.114E+01  1.985E+01  4.338E+00  1.039E+00  1.665E-01  1.055E+01  2.360E+01  5.493E+00  2.169E-01  1.161E+00  1.176E+02
    6.2075  5.254E+01  2.108E+01  5.369E+00  1.371E+00  2.676E-01  8.706E+00  2.175E+01  5.143E+00  2.111E-01  1.124E+00  1.176E+02
    6.0500  5.046E+01  1.998E+01  5.931E+00  1.798E+00  3.043E-01  9.804E+00  2.238E+01  5.577E+00  1.694E-01  1.166E+00  1.176E+02
    5.9000  4.731E+01  1.811E+01  7.109E+00  2.155E+00  3.491E-01  1.147E+01  2.406E+01  5.580E+00  2.222E-01  1.199E+00  1.176E+02
    5.7500  4.664E+01  1.987E+01  9.361E+00  2.585E+00  4.842E-01  9.900E+00  2.252E+01  4.793E+00  2.805E-01  1.126E+00  1.176E+02
    5.6000  4.507E+01  2.236E+01  1.120E+01  3.169E+00  5.865E-01  8.263E+00  2.083E+01  4.804E+00  2.146E-01  1.069E+00  1.176E+02
    5.4500  3.928E+01  2.183E+01  1.220E+01  3.670E+00  5.537E-01  1.007E+01  2.291E+01  5.735E+00  1.573E-01  1.143E+00  1.176E+02
    5.3000  3.227E+01  2.131E+01  1.384E+01  3.996E+00  4.681E-01  1.276E+01  2.560E+01  5.796E+00  2.847E-01  1.248E+00  1.176E+02
    5.1500  2.749E+01  2.487E+01  1.724E+01  4.358E+00  4.178E-01  1.271E+01  2.434E+01  4.365E+00  5.246E-01  1.251E+00  1.176E+02
    5.0000  2.403E+01  3.143E+01  2.230E+01  4.937E+00  3.930E-01  1.022E+01  1.973E+01  2.689E+00  6.899E-01  1.143E+00  1.176E+02
    4.8500  1.945E+01  3.687E+01  2.825E+01  5.945E+00  4.120E-01  7.552E+00  1.524E+01  2.140E+00  7.137E-01  9.808E-01  1.176E+02
    4.7000  1.321E+01  3.915E+01  3.330E+01  7.665E+00  6.831E-01  5.880E+00  1.288E+01  3.317E+00  6.917E-01  7.759E-01  1.176E+02
    4.5500  7.563E+00  3.899E+01  3.390E+01  1.077E+01  1.360E+00  4.890E+00  1.238E+01  6.381E+00  9.718E-01  5.012E-01  1.177E+02
    4.4000  1.136E+01  2.877E+01  3.283E+01  1.659E+01  2.621E+00  3.326E+00  1.238E+01  1.077E+01  2.477E+00  2.905E-01  1.214E+02
    4.2500  9.764E+00  3.171E+01  3.760E+01  1.848E+01  2.720E+00  1.332E+00  8.761E+00  1.136E+01  4.324E+00  4.513E-01  1.265E+02
    4.1000  2.215E+00  9.884E+00  1.688E+01  1.289E+01  3.181E+00 -1.151E-02  8.248E-01  1.130E+00  5.710E-01  9.452E-02  4.766E+01
    3.9500  6.953E-03  3.533E-02  7.096E-02  6.580E-02  2.034E-02  8.455E-05  1.143E-03  1.115E-03  2.821E-04 -8.402E-05  2.019E-01
    3.8000  2.896E-07  1.552E-06  3.338E-06  3.449E-06  1.308E-06  2.833E-08  1.292E-07  1.563E-07  9.203E-08  1.877E-08  1.036E-05
    3.6500  6.180E-13  2.445E-12  3.795E-12  3.380E-12  1.682E-12 -1.572E-13 -6.202E-13 -5.516E-13 -2.800E-13 -4.912E-14  1.026E-11
    3.5000  6.192E-33  3.715E-32  2.889E-32  7.843E-32  1.058E-31 -4.844E-31 -1.584E-31 -4.076E-32 -1.496E-32 -2.193E-33  0.000E+00
